<<PMCA SPECTRUM>>
TAG - live_data
DESCRIPTION - 
GAIN - 2
THRESHOLD - 0
LIVE_MODE - 0
PRESET_TIME - 0
LIVE_TIME - 0.000000
REAL_TIME - 34.079000
START_TIME - 11/02/2018 09:44:19
SERIAL_NUMBER - 0
<<DATA>>
878633
2492017
1351160
1007805
871721
731800
706576
579666
622815
491987
532447
483194
436358
442489
435048
428003
426278
321150
371026
383688
364340
330429
299574
302299
320733
320889
323452
267043
320489
285361
267935
299570
219623
254994
264046
279115
276510
235127
216421
247362
204542
227035
260965
258416
177000
244392
150983
267853
246857
161136
175767
229710
242997
164086
191528
210242
188301
202817
143474
263235
135613
142142
258389
140913
169640
219852
133716
146460
238383
131808
134883
249574
129012
128968
208470
149987
152213
132423
131984
244324
126280
126831
176441
127190
197146
124709
125605
131798
121782
237048
115691
139743
122497
123698
164737
96570
226940
109875
137608
120164
120933
121036
121081
129238
113215
185588
67200
222577
91054
149156
110127
125765
116403
117925
116358
117591
115793
116654
114910
116534
114656
116476
114810
116188
113885
113910
113614
114176
112816
112442
111051
112357
110373
111712
109911
110872
108168
111264
106578
111538
93547
121597
20870
193668
11663
154330
55919
110726
104644
106920
106728
105679
106451
104141
106751
91580
116224
8508
128519
74855
105425
102835
102308
103978
99090
105130
14344
137657
53013
101200
101612
99673
101015
92142
107448
2632
109410
88588
98501
100001
91817
104224
1645
109605
86168
96644
97902
92208
97993
3160
96839
95964
94450
95884
51692
105042
32710
93095
94886
87137
98320
1659
93295
93382
91458
93556
1127
92968
90306
90575
92104
5703
113730
62658
89495
90528
21796
112639
45284
88598
89918
38383
87191
51753
86825
88719
10316
84841
79903
85977
87624
776
85382
86011
84851
86243
128
84441
85893
77955
74008
16982
82921
85266
6437
82041
78104
82084
83051
308
81139
83596
64338
58109
39963
79814
81389
30
79852
80811
67108
65391
26286
77920
79700
57
77919
79134
68495
57002
29856
76181
78001
10
75981
78006
38963
70586
42374
74593
76038
99
74033
76364
2925
71945
74613
71812
46703
29169
72496
73898
6
72136
74012
1352
71361
72087
69191
57948
16455
70395
72075
1
70132
71984
114
69386
71306
25481
63138
51215
68323
63402
6689
68155
70135
2
67803
69226
18
67198
68994
28435
38949
68015
57851
54486
22249
66102
67632
231
65484
66987
0
65406
67174
5
64639
66728
7416
57315
66323
35192
36345
58648
62918
38509
27999
62904
64483
756
63025
64325
154
62673
64401
0
62328
63738
1
62011
63917
37
61694
63696
1844
59732
63234
34050
27196
62126
38415
27056
57606
56941
34272
31031
59590
51570
10668
59425
58194
3205
59691
60840
303
59366
60688
65
58628
60465
9
58358
60183
0
58498
60307
0
57792
59438
1
58056
59291
0
58003
59538
3
57216
58746
32
57156
58886
48
57453
58274
104
56830
58227
377
56086
58114
2426
54051
58046
692
55787
58021
16015
40409
57290
22796
33938
56835
28921
27028
57380
17521
38938
56234
28527
27227
56660
15106
41499
56013
28764
30048
53417
42483
14722
55034
35040
25733
51716
46158
9593
56592
14513
45237
52548
44202
13580
54325
36892
21930
53766
40911
23623
48217
48903
7103
55905
22103
35932
54105
38334
18440
55732
27787
31973
52309
43042
15589
54348
35755
20833
56115
18777
50460
43258
51008
11350
50720
46658
13032
54277
39274
18522
55808
28723
30106
55422
37098
21223
56312
28581
31908
54232
41478
17248
56355
30198
27733
57147
21349
37655
56886
32516
25713
57782
23286
43583
49950
48784
9946
58182
22563
37613
57419
33747
25652
58848
22846
37598
57907
33485
29956
55461
43381
18431
57545
37468
29950
53115
49811
13808
57175
43146
26295
52600
52192
19846
49885
55202
39296
28663
60669
45687
17811
61425
34992
28029
61410
46145
17783
62336
56996
6574
62550
61222
2605
63353
63300
937
63736
64457
291
63962
64742
56
64324
65325
11
64953
65906
5
64974
66143
0
65810
66764
1
66114
67016
0
66490
67818
8
67066
67940
26
67922
68638
2847
65394
68669
31691
40867
65551
58089
24390
56811
66576
58462
15160
69716
69106
2138
70834
71593
75
71292
72159
0
71562
72525
2
72219
72978
2
72737
73863
3577
70449
74173
34963
53961
60676
73442
52362
24283
75237
76165
22
75745
76525
0
76508
77253
36
76607
77897
6857
75493
73904
73987
37740
45710
78689
79260
699
79881
80346
0
80356
80642
1505
80077
81539
49796
92944
21956
82038
82494
273
82937
84129
0
83524
84442
17814
72241
79706
83175
84935
2563
85649
86636
3
86692
87307
28877
66001
80927
87595
88767
983
88834
89910
123
89774
90060
72341
89364
20026
91342
91352
8
91540
92388
45435
69278
70690
92938
94402
65
93594
94502
41574
95381
53512
95231
95978
106
96034
97082
64124
92927
37376
97791
98443
5417
97198
94648
99242
99493
215
100224
99939
71389
107190
23232
100955
101373
3942
118095
83370
102534
103572
111
104875
103832
103435
105246
149
105723
105349
103338
108285
667
107396
106968
106295
109760
296
109922
108247
108485
108899
2461
115316
100688
109648
109788
13583
123027
85923
110783
111494
68530
144920
11241
113304
112995
107996
119597
1969
128635
99078
115582
115399
95816
128661
7211
118913
115889
117569
117593
103774
130093
3897
124107
114447
119076
119972
85765
155040
3703
159534
80818
121716
122140
122675
122893
63332
181648
5018
145352
102801
125036
124853
125352
126153
120405
131932
33444
215785
8992
189004
67403
133879
125669
128966
128007
129478
129503
128972
130463
123400
138424
68177
191391
21723
240856
18581
225994
30307
227435
40061
211386
56388
192182
78270
172094
99107
183484
89972
205981
68578
210387
66775
225176
54648
255957
41906
239612
49715
241319
90384
192185
136205
146191
140683
141789
143911
142510
160366
127010
241425
75878
258332
133863
155275
144135
145103
184796
114685
274875
124279
179144
148353
148985
227986
120076
246577
145530
153027
188999
136286
264932
149638
151582
256432
154141
189618
163577
157190
281698
154871
154884
302531
155846
154821
285999
169019
160443
299140
167392
176602
289779
176882
220312
230163
281854
188652
167386
312980
243314
224743
189202
293912
269100
214529
250219
229796
319203
294862
198922
280050
263832
266471
328016
320113
294300
257840
287260
316212
320528
288699
379440
338837
330419
353683
324836
371849
377114
376251
408871
371689
368200
449237
441999
440350
422994
487927
512887
505682
535187
562989
599474
602822
720446
699770
812555
880658
1027218
1107192
1571245
2612705
1546996
0
0
0
0
0
0
0
0
0
0
0
0
0
0
0
0
0
0
0
0
0
0
0
0
0
0
0
0
0
0
0
0
0
0
0
0
0
0
0
0
0
0
0
<<END>>
<<DP5 CONFIGURATION>>
RESC=?;    Reset Configuration
PURE=OFF;    PUR Interval On/Off
MCAS=NORM;    MCA Source
MCAC=1024;    MCA/MCS Channels
SOFF=OFF;    Set Spectrum Offset
GAIA=2;    Analog Gain Index
PDMD=NORM;    Peak Detect Mode (Min/Max)
THSL=0.012;    Slow Threshold
TLLD=OFF;    LLD Threshold
GATE=OFF;    Gate Control
AUO1=PEAKH;    AUX_OUT Selection
PRER=OFF;    Preset Real Time
PREL=20.000;    Preset Live Time
PREC=OFF;    Preset Counts
PRCL=0;    Preset Counts Low Threshold
PRCH=8191;    Preset Counts High Threshold
SCOE=RI;    Scope Trigger Edge
SCOT=50;    Scope Trigger Position
SCOG=1;    Digital Scope Gain
MCSL=0;    MCS Low Threshold
MCSH=8191;    MCS High Threshold
MCST=0.01;    MCS Timebase
AUO2=ICR;    AUX_OUT2 Selection
GPED=RI;    G.P. Counter Edge
GPIN=AUX2;    G.P. Counter Input
GPME=ON;    G.P. Counter Uses MCA_EN?
GPGA=ON;    G.P. Counter Uses GATE?
GPMC=ON;    G.P. Counter Cleared With MCA Counters?
MCAE=OFF;    MCA/MCS Enable
PDMD=NORM;
<<DP5 CONFIGURATION END>>
<<DPP STATUS>>
Device Type: MCA8000D
Serial Number: 1212
Firmware: 6.09  Build:  0
FPGA: 1.08
Slow Count: 118439709
GP Count: 0
Real Time: 34.090000
Live Time: 0.000000
Board Temp: 39°C
<<DPP STATUS END>>
